IV with two I-meter
:Program Version
13.8.2003 Moll, 4.2008 Fahrer, 6.2011 Gabrysch
:Program Library
CVIV.llb
:start
11/12/2017 12:16:16
:stop
11/12/2017 12:20:57
:elapsed [s]
280.9
:gpib bus delay [ms]
50
:device
W5-B230-S2
:tester
Andrea
:environment
Probe Station (28-2-019)
:comment
LGAD 50 microns, no irradiated, 20C, guard ring connected
:annealing time [min]
0
:material
p FZ
:temperature [C]
20.00
:ToolID
1102
:GuardRingConnection
1
:Region
0
:Instruments
I meter: Keithley 6487
V source: Keithley 2410
- integration time [ms]: 20.0
- internal averaging: 10
- compliance [A or V]: 1.000E-3
:ramp up step [V], delay [s], down step [V], delay[s]
2.0, 1.0, 20.0, 0.5
:set voltage start [V], voltage stop [V], number of steps
-0.0, -100.0, 20
:measured voltage start [V], voltage stop [V], number of steps
-1.0, -140.0, 42
:step mode
voltages from file
:legend
bias [V]	Total Current [A]	Pad Current [A]
BEGIN
-1.000000E+0	-7.359306E-9	-4.170606E-10
-1.500000E+0	-9.191655E-9	-4.737891E-10
-2.000000E+0	-9.984768E-9	-5.001865E-10
-2.500000E+0	-1.061582E-8	-5.092079E-10
-3.000000E+0	-1.164446E-8	-5.196809E-10
-3.500000E+0	-1.174256E-8	-5.321870E-10
-4.000000E+0	-1.291142E-8	-5.418260E-10
-4.500000E+0	-1.373061E-8	-5.577357E-10
-5.000000E+0	-1.470761E-8	-5.730154E-10
-6.000000E+0	-1.725526E-8	-6.034478E-10
-7.000000E+0	-1.935026E-8	-6.397232E-10
-8.000000E+0	-2.201413E-8	-6.873660E-10
-9.000000E+0	-2.569919E-8	-7.489683E-10
-1.000000E+1	-2.919295E-8	-8.271172E-10
-1.200000E+1	-3.860190E-8	-1.165418E-9
-1.400000E+1	-5.190652E-8	-2.284758E-9
-1.600000E+1	-7.034899E-8	-6.027753E-9
-1.800000E+1	-1.003152E-7	-1.660551E-8
-2.000000E+1	-1.397588E-7	-4.001306E-8
-2.200000E+1	-2.138702E-7	-8.037489E-8
-2.400000E+1	-3.030575E-7	-1.385490E-7
-2.600000E+1	-4.171812E-7	-2.149043E-7
-2.800000E+1	-5.544391E-7	-3.092619E-7
-3.000000E+1	-3.202487E-6	-1.007547E-5
-3.500000E+1	-9.087196E-5	-9.122961E-5
-4.000000E+1	-1.650880E-4	-1.642995E-4
-4.500000E+1	-2.048832E-4	-2.024041E-4
-5.000000E+1	-2.172536E-4	-2.202987E-4
-5.500000E+1	-2.375304E-4	-2.363489E-4
-6.000000E+1	-2.550877E-4	-2.525411E-4
-6.500000E+1	-2.729291E-4	-2.694770E-4
-7.000000E+1	-2.896584E-4	-2.847730E-4
-7.500000E+1	-3.077226E-4	-2.999979E-4
-8.000000E+1	-3.252092E-4	-3.165410E-4
-8.500000E+1	-3.432430E-4	-3.323609E-4
-9.000000E+1	-3.602399E-4	-3.459745E-4
-9.500000E+1	-3.755921E-4	-3.578218E-4
-1.000000E+2	-3.915466E-4	-3.671234E-4
-1.100000E+2	-4.607179E-4	-3.903198E-4
-1.200000E+2	-5.731872E-4	-4.188025E-4
-1.300000E+2	-6.716833E-4	-4.390886E-4
-1.400000E+2	-7.712450E-4	-4.572123E-4
END
